Time(s),Length(m),Activation,Force(N)
 0.000,  0.269,0.010,   4.688
 0.002,  0.269,0.010,   4.688
 0.004,  0.269,0.010,   4.688
 0.006,  0.269,0.010,   4.688
 0.008,  0.269,0.010,   4.688
 0.010,  0.269,0.010,   4.688
 0.012,  0.269,0.010,   4.688
 0.014,  0.269,0.010,   4.688
 0.016,  0.269,0.010,   4.688
 0.018,  0.269,0.010,   4.688
 0.020,  0.269,0.010,   4.688
 0.022,  0.269,0.010,   4.688
 0.024,  0.269,0.010,   4.688
 0.026,  0.269,0.010,   4.688
 0.028,  0.269,0.010,   4.688
 0.030,  0.269,0.010,   4.688
 0.032,  0.269,0.010,   4.688
 0.034,  0.269,0.010,   4.688
 0.036,  0.269,0.010,   4.688
 0.038,  0.269,0.010,   4.688
 0.040,  0.269,0.010,   4.688
 0.042,  0.269,0.010,   4.688
 0.044,  0.269,0.010,   4.688
 0.046,  0.269,0.010,   4.688
 0.048,  0.269,0.010,   4.688
 0.050,  0.269,0.010,   4.688
 0.052,  0.269,0.017,   5.085
 0.054,  0.269,0.036,   6.239
 0.056,  0.269,0.064,   7.870
 0.058,  0.269,0.098,   9.839
 0.060,  0.269,0.137,  12.065
 0.062,  0.269,0.178,  14.492
 0.064,  0.269,0.220,  17.075
 0.066,  0.269,0.263,  19.780
 0.068,  0.269,0.306,  22.575
 0.070,  0.269,0.348,  25.434
 0.072,  0.269,0.389,  28.332
 0.074,  0.269,0.428,  31.247
 0.076,  0.269,0.466,  34.160
 0.078,  0.269,0.502,  37.052
 0.080,  0.269,0.536,  39.910
 0.082,  0.269,0.568,  42.718
 0.084,  0.269,0.599,  45.465
 0.086,  0.269,0.627,  48.142
 0.088,  0.269,0.654,  50.740
 0.090,  0.269,0.679,  53.252
 0.092,  0.269,0.702,  55.674
 0.094,  0.269,0.724,  58.002
 0.096,  0.269,0.745,  60.232
 0.098,  0.269,0.764,  62.364
 0.100,  0.269,0.781,  64.396
 0.102,  0.269,0.797,  66.330
 0.104,  0.269,0.813,  68.166
 0.106,  0.269,0.827,  69.906
 0.108,  0.269,0.840,  71.551
 0.110,  0.269,0.852,  73.105
 0.112,  0.269,0.863,  74.570
 0.114,  0.269,0.874,  75.948
 0.116,  0.269,0.883,  77.245
 0.118,  0.269,0.892,  78.462
 0.120,  0.269,0.900,  79.603
 0.122,  0.269,0.908,  80.673
 0.124,  0.269,0.915,  81.674
 0.126,  0.269,0.921,  82.609
 0.128,  0.269,0.927,  83.483
 0.130,  0.269,0.933,  84.299
 0.132,  0.269,0.938,  85.060
 0.134,  0.269,0.943,  85.769
 0.136,  0.269,0.947,  86.430
 0.138,  0.269,0.951,  87.045
 0.140,  0.269,0.955,  87.617
 0.142,  0.269,0.958,  88.149
 0.144,  0.269,0.962,  88.643
 0.146,  0.269,0.965,  89.102
 0.148,  0.269,0.967,  89.528
 0.150,  0.269,0.970,  89.924
 0.152,  0.269,0.972,  90.291
 0.154,  0.269,0.974,  90.631
 0.156,  0.269,0.976,  90.947
 0.158,  0.269,0.978,  91.239
 0.160,  0.269,0.980,  91.510
 0.162,  0.269,0.981,  91.761
 0.164,  0.269,0.983,  91.994
 0.166,  0.269,0.984,  92.209
 0.168,  0.269,0.985,  92.408
 0.170,  0.269,0.986,  92.592
 0.172,  0.269,0.987,  92.763
 0.174,  0.269,0.988,  92.921
 0.176,  0.269,0.989,  93.067
 0.178,  0.269,0.990,  93.202
 0.180,  0.269,0.991,  93.327
 0.182,  0.269,0.992,  93.442
 0.184,  0.269,0.992,  93.549
 0.186,  0.269,0.993,  93.648
 0.188,  0.269,0.993,  93.739
 0.190,  0.269,0.994,  93.824
 0.192,  0.269,0.994,  93.901
 0.194,  0.269,0.995,  93.973
 0.196,  0.269,0.995,  94.040
 0.198,  0.269,0.996,  94.102
 0.200,  0.269,0.996,  94.158
 0.202,  0.269,0.996,  94.211
 0.204,  0.269,0.997,  94.259
 0.206,  0.269,0.997,  94.304
 0.208,  0.269,0.997,  94.345
 0.210,  0.269,0.997,  94.384
 0.212,  0.269,0.997,  94.419
 0.214,  0.269,0.998,  94.451
 0.216,  0.269,0.998,  94.482
 0.218,  0.269,0.998,  94.509
 0.220,  0.269,0.998,  94.535
 0.222,  0.269,0.998,  94.559
 0.224,  0.269,0.998,  94.581
 0.226,  0.269,0.999,  94.601
 0.228,  0.269,0.999,  94.620
 0.230,  0.269,0.999,  94.637
 0.232,  0.269,0.999,  94.653
 0.234,  0.269,0.999,  94.667
 0.236,  0.269,0.999,  94.681
 0.238,  0.269,0.999,  94.693
 0.240,  0.269,0.999,  94.705
 0.242,  0.269,0.999,  94.716
 0.244,  0.269,0.999,  94.726
 0.246,  0.269,0.999,  94.735
 0.248,  0.269,0.999,  94.743
 0.250,  0.269,0.999,  94.751
 0.252,  0.269,0.999,  94.758
 0.254,  0.269,1.000,  94.765
 0.256,  0.269,1.000,  94.771
 0.258,  0.269,1.000,  94.776
 0.260,  0.269,1.000,  94.782
 0.262,  0.269,1.000,  94.786
 0.264,  0.269,1.000,  94.791
 0.266,  0.269,1.000,  94.795
 0.268,  0.269,1.000,  94.799
 0.270,  0.269,1.000,  94.802
 0.272,  0.269,1.000,  94.805
 0.274,  0.269,1.000,  94.808
 0.276,  0.269,1.000,  94.811
 0.278,  0.269,1.000,  94.814
 0.280,  0.269,1.000,  94.816
 0.282,  0.269,1.000,  94.818
 0.284,  0.269,1.000,  94.820
 0.286,  0.269,1.000,  94.822
 0.288,  0.269,1.000,  94.824
 0.290,  0.269,1.000,  94.825
 0.292,  0.269,1.000,  94.827
 0.294,  0.269,1.000,  94.828
 0.296,  0.269,1.000,  94.829
 0.298,  0.269,1.000,  94.830
 0.300,  0.269,1.000,  94.831
 0.302,  0.269,1.000,  94.832
 0.304,  0.269,1.000,  94.833
 0.306,  0.269,1.000,  94.834
 0.308,  0.269,1.000,  94.835
 0.310,  0.269,1.000,  94.836
 0.312,  0.269,1.000,  94.836
 0.314,  0.269,1.000,  94.837
 0.316,  0.269,1.000,  94.837
 0.318,  0.269,1.000,  94.838
 0.320,  0.269,1.000,  94.838
 0.322,  0.269,1.000,  94.839
 0.324,  0.269,1.000,  94.839
 0.326,  0.269,1.000,  94.840
 0.328,  0.269,1.000,  94.840
 0.330,  0.269,1.000,  94.840
 0.332,  0.269,1.000,  94.841
 0.334,  0.269,1.000,  94.841
 0.336,  0.269,1.000,  94.841
 0.338,  0.269,1.000,  94.841
 0.340,  0.269,1.000,  94.841
 0.342,  0.269,1.000,  94.842
 0.344,  0.269,1.000,  94.842
 0.346,  0.269,1.000,  94.842
 0.348,  0.269,1.000,  94.842
 0.350,  0.269,1.000,  94.842
 0.352,  0.269,1.000,  94.842
 0.354,  0.269,1.000,  94.843
 0.356,  0.269,1.000,  94.843
 0.358,  0.269,1.000,  94.843
 0.360,  0.269,1.000,  94.843
 0.362,  0.269,1.000,  94.843
 0.364,  0.269,1.000,  94.843
 0.366,  0.269,1.000,  94.843
 0.368,  0.269,1.000,  94.843
 0.370,  0.269,1.000,  94.843
 0.372,  0.269,1.000,  94.843
 0.374,  0.269,1.000,  94.843
 0.376,  0.269,1.000,  94.843
 0.378,  0.269,1.000,  94.843
 0.380,  0.269,1.000,  94.844
 0.382,  0.269,1.000,  94.844
 0.384,  0.269,1.000,  94.844
 0.386,  0.269,1.000,  94.844
 0.388,  0.269,1.000,  94.844
 0.390,  0.269,1.000,  94.844
 0.392,  0.269,1.000,  94.844
 0.394,  0.269,1.000,  94.844
 0.396,  0.269,1.000,  94.844
 0.398,  0.269,1.000,  94.844
 0.400,  0.269,1.000,  94.831
 0.402,  0.269,1.000,  88.952
 0.404,  0.269,1.000,  84.292
 0.406,  0.269,1.000,  80.606
 0.408,  0.269,1.000,  77.694
 0.410,  0.269,1.000,  75.396
 0.412,  0.269,1.000,  73.584
 0.414,  0.268,1.000,  72.158
 0.416,  0.268,1.000,  71.037
 0.418,  0.268,1.000,  70.159
 0.420,  0.268,1.000,  69.472
 0.422,  0.268,1.000,  68.937
 0.424,  0.268,1.000,  68.522
 0.426,  0.268,1.000,  68.202
 0.428,  0.268,1.000,  67.957
 0.430,  0.268,1.000,  67.772
 0.432,  0.267,1.000,  67.634
 0.434,  0.267,1.000,  67.533
 0.436,  0.267,1.000,  67.462
 0.438,  0.267,1.000,  67.414
 0.440,  0.267,1.000,  67.385
 0.442,  0.267,1.000,  67.370
 0.444,  0.267,1.000,  67.366
 0.446,  0.267,1.000,  67.372
 0.448,  0.266,1.000,  67.385
 0.450,  0.266,1.000,  67.403
 0.452,  0.266,1.000,  67.426
 0.454,  0.266,1.000,  67.453
 0.456,  0.266,1.000,  67.482
 0.458,  0.266,1.000,  67.513
 0.460,  0.266,1.000,  67.546
 0.462,  0.266,1.000,  67.580
 0.464,  0.265,1.000,  67.615
 0.466,  0.265,1.000,  67.651
 0.468,  0.265,1.000,  67.687
 0.470,  0.265,1.000,  67.724
 0.472,  0.265,1.000,  67.761
 0.474,  0.265,1.000,  67.798
 0.476,  0.265,1.000,  67.835
 0.478,  0.265,1.000,  67.873
 0.480,  0.265,1.000,  67.910
 0.482,  0.264,1.000,  67.947
 0.484,  0.264,1.000,  67.984
 0.486,  0.264,1.000,  68.020
 0.488,  0.264,1.000,  68.057
 0.490,  0.264,1.000,  68.093
 0.492,  0.264,1.000,  68.130
 0.494,  0.264,1.000,  68.166
 0.496,  0.264,1.000,  68.201
 0.498,  0.263,1.000,  68.237
 0.500,  0.263,1.000,  68.272
 0.502,  0.263,1.000,  68.307
 0.504,  0.263,1.000,  68.342
 0.506,  0.263,1.000,  68.376
 0.508,  0.263,1.000,  68.411
 0.510,  0.263,1.000,  68.445
 0.512,  0.263,1.000,  68.478
 0.514,  0.262,1.000,  68.512
 0.516,  0.262,1.000,  68.545
 0.518,  0.262,1.000,  68.577
 0.520,  0.262,1.000,  68.610
 0.522,  0.262,1.000,  68.642
 0.524,  0.262,1.000,  68.674
 0.526,  0.262,1.000,  68.705
 0.528,  0.262,1.000,  68.736
 0.530,  0.262,1.000,  68.767
 0.532,  0.261,1.000,  68.798
 0.534,  0.261,1.000,  68.828
 0.536,  0.261,1.000,  68.858
 0.538,  0.261,1.000,  68.887
 0.540,  0.261,1.000,  68.916
 0.542,  0.261,1.000,  68.945
 0.544,  0.261,1.000,  68.974
 0.546,  0.261,1.000,  69.002
 0.548,  0.260,1.000,  69.029
 0.550,  0.260,1.000,  69.057
 0.552,  0.260,1.000,  69.084
 0.554,  0.260,1.000,  69.110
 0.556,  0.260,1.000,  69.137
 0.558,  0.260,1.000,  69.162
 0.560,  0.260,1.000,  69.188
 0.562,  0.260,1.000,  69.213
 0.564,  0.259,1.000,  69.238
 0.566,  0.259,1.000,  69.262
 0.568,  0.259,1.000,  69.286
 0.570,  0.259,1.000,  69.309
 0.572,  0.259,1.000,  69.333
 0.574,  0.259,1.000,  69.355
 0.576,  0.259,1.000,  69.378
 0.578,  0.259,1.000,  69.399
 0.580,  0.259,1.000,  69.421
 0.582,  0.258,1.000,  69.442
 0.584,  0.258,1.000,  69.462
 0.586,  0.258,1.000,  69.483
 0.588,  0.258,1.000,  69.502
 0.590,  0.258,1.000,  69.522
 0.592,  0.258,1.000,  69.541
 0.594,  0.258,1.000,  69.559
 0.596,  0.258,1.000,  69.577
 0.598,  0.257,1.000,  69.595
 0.600,  0.257,1.000,  69.612
 0.602,  0.257,1.000,  69.628
 0.604,  0.257,1.000,  69.644
 0.606,  0.257,1.000,  69.660
 0.608,  0.257,1.000,  69.675
 0.610,  0.257,1.000,  69.690
 0.612,  0.257,1.000,  69.705
 0.614,  0.256,1.000,  69.718
 0.616,  0.256,1.000,  69.732
 0.618,  0.256,1.000,  69.745
 0.620,  0.256,1.000,  69.757
 0.622,  0.256,1.000,  69.769
 0.624,  0.256,1.000,  69.780
 0.626,  0.256,1.000,  69.791
 0.628,  0.256,1.000,  69.802
 0.630,  0.256,1.000,  69.812
 0.632,  0.255,1.000,  69.821
 0.634,  0.255,1.000,  69.830
 0.636,  0.255,1.000,  69.839
 0.638,  0.255,1.000,  69.847
 0.640,  0.255,1.000,  69.854
 0.642,  0.255,1.000,  69.861
 0.644,  0.255,1.000,  69.868
 0.646,  0.255,1.000,  69.873
 0.648,  0.254,1.000,  69.879
 0.650,  0.254,1.000,  69.884
 0.652,  0.254,1.000,  69.888
 0.654,  0.254,1.000,  69.892
 0.656,  0.254,1.000,  69.895
 0.658,  0.254,1.000,  69.898
 0.660,  0.254,1.000,  69.900
 0.662,  0.254,1.000,  69.902
 0.664,  0.253,1.000,  69.903
 0.666,  0.253,1.000,  69.904
 0.668,  0.253,1.000,  69.904
 0.670,  0.253,1.000,  69.903
 0.672,  0.253,1.000,  69.902
 0.674,  0.253,1.000,  69.900
 0.676,  0.253,1.000,  69.898
 0.678,  0.253,1.000,  69.896
 0.680,  0.253,1.000,  69.892
 0.682,  0.252,1.000,  69.889
 0.684,  0.252,1.000,  69.884
 0.686,  0.252,1.000,  69.879
 0.688,  0.252,1.000,  69.874
 0.690,  0.252,1.000,  69.868
 0.692,  0.252,1.000,  69.861
 0.694,  0.252,1.000,  69.854
 0.696,  0.252,1.000,  69.846
 0.698,  0.251,1.000,  69.838
 0.700,  0.251,1.000,  69.829
 0.702,  0.251,1.000,  69.819
 0.704,  0.251,1.000,  69.809
 0.706,  0.251,1.000,  69.798
 0.708,  0.251,1.000,  69.787
 0.710,  0.251,1.000,  69.775
 0.712,  0.251,1.000,  69.762
 0.714,  0.250,1.000,  69.749
 0.716,  0.250,1.000,  69.736
 0.718,  0.250,1.000,  69.721
 0.720,  0.250,1.000,  69.707
 0.722,  0.250,1.000,  69.691
 0.724,  0.250,1.000,  69.675
 0.726,  0.250,1.000,  69.658
 0.728,  0.250,1.000,  69.641
 0.730,  0.250,1.000,  69.623
 0.732,  0.249,1.000,  69.605
 0.734,  0.249,1.000,  69.585
 0.736,  0.249,1.000,  69.566
 0.738,  0.249,1.000,  69.545
 0.740,  0.249,1.000,  69.524
 0.742,  0.249,1.000,  69.503
 0.744,  0.249,1.000,  69.481
 0.746,  0.249,1.000,  69.458
 0.748,  0.248,1.000,  69.434
 0.750,  0.248,1.000,  69.410
 0.752,  0.248,1.000,  69.386
 0.754,  0.248,1.000,  69.360
 0.756,  0.248,1.000,  69.334
 0.758,  0.248,1.000,  69.308
 0.760,  0.248,1.000,  69.280
 0.762,  0.248,1.000,  69.253
 0.764,  0.247,1.000,  69.224
 0.766,  0.247,1.000,  69.195
 0.768,  0.247,1.000,  69.165
 0.770,  0.247,1.000,  69.135
 0.772,  0.247,1.000,  69.104
 0.774,  0.247,1.000,  69.072
 0.776,  0.247,1.000,  69.040
 0.778,  0.247,1.000,  69.007
 0.780,  0.247,1.000,  68.973
 0.782,  0.246,1.000,  68.939
 0.784,  0.246,1.000,  68.904
 0.786,  0.246,1.000,  68.869
 0.788,  0.246,1.000,  68.833
 0.790,  0.246,1.000,  68.796
 0.792,  0.246,1.000,  68.758
 0.794,  0.246,1.000,  68.720
 0.796,  0.246,1.000,  68.681
 0.798,  0.245,1.000,  68.642
 0.800,  0.245,1.000,  68.602
 0.802,  0.245,1.000,  68.561
 0.804,  0.245,1.000,  68.520
 0.806,  0.245,1.000,  68.478
 0.808,  0.245,1.000,  68.435
 0.810,  0.245,1.000,  68.392
 0.812,  0.245,1.000,  68.348
 0.814,  0.244,1.000,  68.303
 0.816,  0.244,1.000,  68.258
 0.818,  0.244,1.000,  68.212
 0.820,  0.244,1.000,  68.165
 0.822,  0.244,1.000,  68.118
 0.824,  0.244,1.000,  68.070
 0.826,  0.244,1.000,  68.021
 0.828,  0.244,1.000,  67.972
 0.830,  0.244,1.000,  67.922
 0.832,  0.243,1.000,  67.871
 0.834,  0.243,1.000,  67.820
 0.836,  0.243,1.000,  67.768
 0.838,  0.243,1.000,  67.716
 0.840,  0.243,1.000,  67.662
 0.842,  0.243,1.000,  67.608
 0.844,  0.243,1.000,  67.554
 0.846,  0.243,1.000,  67.499
 0.848,  0.242,1.000,  67.443
 0.850,  0.242,1.000,  67.386
 0.852,  0.242,1.000,  67.329
 0.854,  0.242,1.000,  67.271
 0.856,  0.242,1.000,  67.212
 0.858,  0.242,1.000,  67.153
 0.860,  0.242,1.000,  67.093
 0.862,  0.242,1.000,  67.033
 0.864,  0.241,1.000,  66.971
 0.866,  0.241,1.000,  66.909
 0.868,  0.241,1.000,  66.847
 0.870,  0.241,1.000,  66.784
 0.872,  0.241,1.000,  66.720
 0.874,  0.241,1.000,  66.655
 0.876,  0.241,1.000,  66.590
 0.878,  0.241,1.000,  66.524
 0.880,  0.241,1.000,  66.457
 0.882,  0.240,1.000,  66.390
 0.884,  0.240,1.000,  66.322
 0.886,  0.240,1.000,  66.254
 0.888,  0.240,1.000,  66.185
 0.890,  0.240,1.000,  66.115
 0.892,  0.240,1.000,  66.044
 0.894,  0.240,1.000,  65.973
 0.896,  0.240,1.000,  65.901
 0.898,  0.239,1.000,  65.828
 0.900,  0.239,1.000,  65.755
 0.902,  0.239,1.000,  65.681
 0.904,  0.239,1.000,  65.607
 0.906,  0.239,1.000,  65.532
 0.908,  0.239,1.000,  65.456
 0.910,  0.239,1.000,  65.379
 0.912,  0.239,1.000,  65.302
 0.914,  0.238,1.000,  65.224
 0.916,  0.238,1.000,  65.146
 0.918,  0.238,1.000,  65.067
 0.920,  0.238,1.000,  64.987
 0.922,  0.238,1.000,  64.907
 0.924,  0.238,1.000,  64.826
 0.926,  0.238,1.000,  64.744
 0.928,  0.238,1.000,  64.661
 0.930,  0.238,1.000,  64.578
 0.932,  0.237,1.000,  64.495
 0.934,  0.237,1.000,  64.410
 0.936,  0.237,1.000,  64.325
 0.938,  0.237,1.000,  64.240
 0.940,  0.237,1.000,  64.153
 0.942,  0.237,1.000,  64.067
 0.944,  0.237,1.000,  63.979
 0.946,  0.237,1.000,  63.891
 0.948,  0.236,1.000,  63.802
 0.950,  0.236,1.000,  63.712
 0.952,  0.236,1.000,  63.622
 0.954,  0.236,1.000,  63.531
 0.956,  0.236,1.000,  63.440
 0.958,  0.236,1.000,  63.348
 0.960,  0.236,1.000,  63.255
 0.962,  0.236,1.000,  63.162
 0.964,  0.235,1.000,  63.068
 0.966,  0.235,1.000,  62.973
 0.968,  0.235,1.000,  62.878
 0.970,  0.235,1.000,  62.782
 0.972,  0.235,1.000,  62.686
 0.974,  0.235,1.000,  62.589
 0.976,  0.235,1.000,  62.491
 0.978,  0.235,1.000,  62.393
 0.980,  0.235,1.000,  62.294
 0.982,  0.234,1.000,  62.194
 0.984,  0.234,1.000,  62.094
 0.986,  0.234,1.000,  61.993
 0.988,  0.234,1.000,  61.892
 0.990,  0.234,1.000,  61.790
 0.992,  0.234,1.000,  61.687
 0.994,  0.234,1.000,  61.584
 0.996,  0.234,1.000,  61.480
 0.998,  0.233,1.000,  61.376
 1.000,  0.233,1.000,  61.271
 1.002,  0.233,1.000,  61.165
 1.004,  0.233,1.000,  61.059
 1.006,  0.233,1.000,  60.952
 1.008,  0.233,1.000,  60.844
 1.010,  0.233,1.000,  60.736
 1.012,  0.233,1.000,  60.628
 1.014,  0.232,1.000,  60.518
 1.016,  0.232,1.000,  60.409
 1.018,  0.232,1.000,  60.298
 1.020,  0.232,1.000,  60.187
 1.022,  0.232,1.000,  60.076
 1.024,  0.232,1.000,  59.964
 1.026,  0.232,1.000,  59.851
 1.028,  0.232,1.000,  59.738
 1.030,  0.232,1.000,  59.624
 1.032,  0.231,1.000,  59.509
 1.034,  0.231,1.000,  59.394
 1.036,  0.231,1.000,  59.279
 1.038,  0.231,1.000,  59.162
 1.040,  0.231,1.000,  59.046
 1.042,  0.231,1.000,  58.928
 1.044,  0.231,1.000,  58.811
 1.046,  0.231,1.000,  58.692
 1.048,  0.230,1.000,  58.573
 1.050,  0.230,1.000,  58.454
 1.052,  0.230,1.000,  58.334
 1.054,  0.230,1.000,  58.213
 1.056,  0.230,1.000,  58.092
 1.058,  0.230,1.000,  57.971
 1.060,  0.230,1.000,  57.848
 1.062,  0.230,1.000,  57.726
 1.064,  0.229,1.000,  57.602
 1.066,  0.229,1.000,  57.479
 1.068,  0.229,1.000,  60.289
 1.070,  0.229,1.000,  63.897
 1.072,  0.229,1.000,  66.877
 1.074,  0.229,1.000,  69.339
 1.076,  0.229,1.000,  71.375
 1.078,  0.229,1.000,  73.059
 1.080,  0.229,1.000,  74.452
 1.082,  0.229,1.000,  75.605
 1.084,  0.229,1.000,  76.559
 1.086,  0.229,1.000,  77.349
 1.088,  0.229,1.000,  78.003
 1.090,  0.229,1.000,  78.544
 1.092,  0.229,1.000,  78.992
 1.094,  0.229,1.000,  79.364
 1.096,  0.229,1.000,  79.671
 1.098,  0.229,1.000,  79.926
 1.100,  0.229,1.000,  80.136
 1.102,  0.229,1.000,  80.311
 1.104,  0.229,1.000,  80.456
 1.106,  0.229,1.000,  80.575
 1.108,  0.229,1.000,  80.675
 1.110,  0.229,1.000,  80.757
 1.112,  0.229,1.000,  80.825
 1.114,  0.229,1.000,  80.881
 1.116,  0.229,1.000,  80.928
 1.118,  0.229,1.000,  80.967
 1.120,  0.229,1.000,  80.999
 1.122,  0.229,1.000,  81.025
 1.124,  0.229,1.000,  81.047
 1.126,  0.229,1.000,  81.066
 1.128,  0.229,1.000,  81.081
 1.130,  0.229,1.000,  81.093
 1.132,  0.229,1.000,  81.103
 1.134,  0.229,1.000,  81.112
 1.136,  0.229,1.000,  81.119
 1.138,  0.229,1.000,  81.125
 1.140,  0.229,1.000,  81.130
 1.142,  0.229,1.000,  81.134
 1.144,  0.229,1.000,  81.137
 1.146,  0.229,1.000,  81.140
 1.148,  0.229,1.000,  81.142
 1.150,  0.229,1.000,  81.144
 1.152,  0.229,1.000,  81.146
 1.154,  0.229,1.000,  81.147
 1.156,  0.229,1.000,  81.148
 1.158,  0.229,1.000,  81.149
 1.160,  0.229,1.000,  81.150
 1.162,  0.229,1.000,  81.150
 1.164,  0.229,1.000,  81.151
 1.166,  0.229,1.000,  81.151
 1.168,  0.229,1.000,  81.152
 1.170,  0.229,1.000,  81.152
 1.172,  0.229,1.000,  81.152
 1.174,  0.229,1.000,  81.152
 1.176,  0.229,1.000,  81.153
 1.178,  0.229,1.000,  81.153
 1.180,  0.229,1.000,  81.153
 1.182,  0.229,1.000,  81.153
 1.184,  0.229,1.000,  81.153
 1.186,  0.229,1.000,  81.153
 1.188,  0.229,1.000,  81.153
 1.190,  0.229,1.000,  81.153
 1.192,  0.229,1.000,  81.153
 1.194,  0.229,1.000,  81.153
 1.196,  0.229,1.000,  81.153
 1.198,  0.229,1.000,  81.153
 1.200,  0.229,1.000,  81.153
 1.202,  0.229,1.000,  81.153
 1.204,  0.229,1.000,  81.153
 1.206,  0.229,1.000,  81.153
 1.208,  0.229,1.000,  81.153
 1.210,  0.229,1.000,  81.153
 1.212,  0.229,1.000,  81.153
 1.214,  0.229,1.000,  81.153
 1.216,  0.229,1.000,  81.153
 1.218,  0.229,1.000,  81.153
 1.220,  0.229,1.000,  81.153
 1.222,  0.229,1.000,  81.153
 1.224,  0.229,1.000,  81.153
 1.226,  0.229,1.000,  81.153
 1.228,  0.229,1.000,  81.153
 1.230,  0.229,1.000,  81.153
 1.232,  0.229,1.000,  81.153
 1.234,  0.229,1.000,  81.153
 1.236,  0.229,1.000,  81.153
 1.238,  0.229,1.000,  81.153
 1.240,  0.229,1.000,  81.153
 1.242,  0.229,1.000,  81.153
 1.244,  0.229,1.000,  81.153
 1.246,  0.229,1.000,  81.153
 1.248,  0.229,1.000,  81.153
 1.250,  0.229,1.000,  81.153
 1.252,  0.229,1.000,  81.153
 1.254,  0.229,1.000,  81.153
 1.256,  0.229,1.000,  81.153
 1.258,  0.229,1.000,  81.153
 1.260,  0.229,1.000,  81.153
 1.262,  0.229,1.000,  81.153
 1.264,  0.229,1.000,  81.153
 1.266,  0.229,1.000,  81.153
 1.268,  0.229,1.000,  81.153
 1.270,  0.229,1.000,  81.153
 1.272,  0.229,1.000,  81.153
 1.274,  0.229,1.000,  81.153
 1.276,  0.229,1.000,  81.153
 1.278,  0.229,1.000,  81.153
 1.280,  0.229,1.000,  81.153
 1.282,  0.229,1.000,  81.153
 1.284,  0.229,1.000,  81.153
 1.286,  0.229,1.000,  81.153
 1.288,  0.229,1.000,  81.153
 1.290,  0.229,1.000,  81.153
 1.292,  0.229,1.000,  81.153
 1.294,  0.229,1.000,  81.153
 1.296,  0.229,1.000,  81.153
 1.298,  0.229,1.000,  81.153
 1.300,  0.229,1.000,  81.153
 1.302,  0.229,1.000,  81.153
 1.304,  0.229,1.000,  81.153
 1.306,  0.229,1.000,  81.153
 1.308,  0.229,1.000,  81.153
 1.310,  0.229,1.000,  81.153
 1.312,  0.229,1.000,  81.153
 1.314,  0.229,1.000,  81.153
 1.316,  0.229,1.000,  81.153
 1.318,  0.229,1.000,  81.153
 1.320,  0.229,1.000,  81.153
 1.322,  0.229,1.000,  81.153
 1.324,  0.229,1.000,  81.153
 1.326,  0.229,1.000,  81.153
 1.328,  0.229,1.000,  81.153
 1.330,  0.229,1.000,  81.153
 1.332,  0.229,1.000,  81.153
 1.334,  0.229,1.000,  81.153
 1.336,  0.229,1.000,  81.153
 1.338,  0.229,1.000,  81.153
 1.340,  0.229,1.000,  81.153
 1.342,  0.229,1.000,  81.153
 1.344,  0.229,1.000,  81.153
 1.346,  0.229,1.000,  81.153
 1.348,  0.229,1.000,  81.153
 1.350,  0.229,1.000,  81.153
 1.352,  0.229,1.000,  81.153
 1.354,  0.229,1.000,  81.153
 1.356,  0.229,1.000,  81.153
 1.358,  0.229,1.000,  81.153
 1.360,  0.229,1.000,  81.153
 1.362,  0.229,1.000,  81.153
 1.364,  0.229,1.000,  81.153
 1.366,  0.229,1.000,  81.153
 1.368,  0.229,1.000,  81.153
 1.370,  0.229,1.000,  81.153
 1.372,  0.229,1.000,  81.153
 1.374,  0.229,1.000,  81.153
 1.376,  0.229,1.000,  81.153
 1.378,  0.229,1.000,  81.153
 1.380,  0.229,1.000,  81.153
 1.382,  0.229,1.000,  81.153
 1.384,  0.229,1.000,  81.153
 1.386,  0.229,1.000,  81.153
 1.388,  0.229,1.000,  81.153
 1.390,  0.229,1.000,  81.153
 1.392,  0.229,1.000,  81.153
 1.394,  0.229,1.000,  81.153
 1.396,  0.229,1.000,  81.153
 1.398,  0.229,1.000,  81.153
 1.400,  0.229,1.000,  81.153
 1.402,  0.229,1.000,  81.153
 1.404,  0.229,1.000,  81.153
 1.406,  0.229,1.000,  81.153
 1.408,  0.229,1.000,  81.153
 1.410,  0.229,1.000,  81.153
 1.412,  0.229,1.000,  81.153
 1.414,  0.229,1.000,  81.153
 1.416,  0.229,1.000,  81.153
 1.418,  0.229,1.000,  81.153
 1.420,  0.229,1.000,  81.153
 1.422,  0.229,1.000,  81.153
 1.424,  0.229,1.000,  81.153
 1.426,  0.229,1.000,  81.153
 1.428,  0.229,1.000,  81.153
 1.430,  0.229,1.000,  81.153
 1.432,  0.229,1.000,  81.153
 1.434,  0.229,1.000,  81.153
 1.436,  0.229,1.000,  81.153
 1.438,  0.229,1.000,  81.153
 1.440,  0.229,1.000,  81.153
 1.442,  0.229,1.000,  81.153
 1.444,  0.229,1.000,  81.153
 1.446,  0.229,1.000,  81.153
 1.448,  0.229,1.000,  81.153
 1.450,  0.229,1.000,  81.153
 1.452,  0.229,1.000,  81.153
 1.454,  0.229,1.000,  81.153
 1.456,  0.229,1.000,  81.153
 1.458,  0.229,1.000,  81.153
 1.460,  0.229,1.000,  81.153
 1.462,  0.229,1.000,  81.153
 1.464,  0.229,1.000,  81.153
 1.466,  0.229,1.000,  81.153
 1.468,  0.229,1.000,  81.153
 1.470,  0.229,1.000,  81.153
 1.472,  0.229,1.000,  81.153
 1.474,  0.229,1.000,  81.153
 1.476,  0.229,1.000,  81.153
 1.478,  0.229,1.000,  81.153
 1.480,  0.229,1.000,  81.153
 1.482,  0.229,1.000,  81.153
 1.484,  0.229,1.000,  81.153
 1.486,  0.229,1.000,  81.153
 1.488,  0.229,1.000,  81.153
 1.490,  0.229,1.000,  81.153
 1.492,  0.229,1.000,  81.153
 1.494,  0.229,1.000,  81.153
 1.496,  0.229,1.000,  81.153
 1.498,  0.229,1.000,  81.153
 1.500,  0.229,1.000,  81.153
 1.502,  0.229,1.000,  81.153
 1.504,  0.229,1.000,  81.153
 1.506,  0.229,1.000,  81.153
 1.508,  0.229,1.000,  81.153
 1.510,  0.229,1.000,  81.153
 1.512,  0.229,1.000,  81.153
 1.514,  0.229,1.000,  81.153
 1.516,  0.229,1.000,  81.153
 1.518,  0.229,1.000,  81.153
 1.520,  0.229,1.000,  81.153
 1.522,  0.229,1.000,  81.153
 1.524,  0.229,1.000,  81.153
 1.526,  0.229,1.000,  81.153
 1.528,  0.229,1.000,  81.153
 1.530,  0.229,1.000,  81.153
 1.532,  0.229,1.000,  81.153
 1.534,  0.229,1.000,  81.153
 1.536,  0.229,1.000,  81.153
 1.538,  0.229,1.000,  81.153
 1.540,  0.229,1.000,  81.153
 1.542,  0.229,1.000,  81.153
 1.544,  0.229,1.000,  81.153
 1.546,  0.229,1.000,  81.153
 1.548,  0.229,1.000,  81.153
 1.550,  0.229,1.000,  81.153
 1.552,  0.229,1.000,  81.153
 1.554,  0.229,1.000,  81.153
 1.556,  0.229,1.000,  81.153
 1.558,  0.229,1.000,  81.153
 1.560,  0.229,1.000,  81.153
 1.562,  0.229,1.000,  81.153
 1.564,  0.229,1.000,  81.153
 1.566,  0.229,1.000,  81.153
 1.568,  0.229,1.000,  81.153
 1.570,  0.229,1.000,  81.153
 1.572,  0.229,1.000,  81.153
 1.574,  0.229,1.000,  81.153
 1.576,  0.229,1.000,  81.153
 1.578,  0.229,1.000,  81.153
 1.580,  0.229,1.000,  81.153
 1.582,  0.229,1.000,  81.153
 1.584,  0.229,1.000,  81.153
 1.586,  0.229,1.000,  81.153
 1.588,  0.229,1.000,  81.153
 1.590,  0.229,1.000,  81.153
 1.592,  0.229,1.000,  81.153
 1.594,  0.229,1.000,  81.153
 1.596,  0.229,1.000,  81.153
 1.598,  0.229,1.000,  81.153
 1.600,  0.229,1.000,  81.153
 1.602,  0.229,1.000,  81.153
 1.604,  0.229,1.000,  81.153
 1.606,  0.229,1.000,  81.153
 1.608,  0.229,1.000,  81.153
 1.610,  0.229,1.000,  81.153
 1.612,  0.229,1.000,  81.153
 1.614,  0.229,1.000,  81.153
 1.616,  0.229,1.000,  81.153
 1.618,  0.229,1.000,  81.153
 1.620,  0.229,1.000,  81.153
 1.622,  0.229,1.000,  81.153
 1.624,  0.229,1.000,  81.153
 1.626,  0.229,1.000,  81.153
 1.628,  0.229,1.000,  81.153
 1.630,  0.229,1.000,  81.153
 1.632,  0.229,1.000,  81.153
 1.634,  0.229,1.000,  81.153
 1.636,  0.229,1.000,  81.153
 1.638,  0.229,1.000,  81.153
 1.640,  0.229,1.000,  81.153
 1.642,  0.229,1.000,  81.153
 1.644,  0.229,1.000,  81.153
 1.646,  0.229,1.000,  81.153
 1.648,  0.229,1.000,  81.153
 1.650,  0.229,1.000,  81.153
 1.652,  0.229,1.000,  81.153
 1.654,  0.229,1.000,  81.153
 1.656,  0.229,1.000,  81.153
 1.658,  0.229,1.000,  81.153
 1.660,  0.229,1.000,  81.153
 1.662,  0.229,1.000,  81.153
 1.664,  0.229,1.000,  81.153
 1.666,  0.229,1.000,  81.153
 1.668,  0.229,1.000,  81.153
 1.670,  0.229,1.000,  81.153
 1.672,  0.229,1.000,  81.153
 1.674,  0.229,1.000,  81.153
 1.676,  0.229,1.000,  81.153
 1.678,  0.229,1.000,  81.153
 1.680,  0.229,1.000,  81.153
 1.682,  0.229,1.000,  81.153
 1.684,  0.229,1.000,  81.153
 1.686,  0.229,1.000,  81.153
 1.688,  0.229,1.000,  81.153
 1.690,  0.229,1.000,  81.153
 1.692,  0.229,1.000,  81.153
 1.694,  0.229,1.000,  81.153
 1.696,  0.229,1.000,  81.153
 1.698,  0.229,1.000,  81.153
 1.700,  0.229,1.000,  81.153
 1.702,  0.229,1.000,  81.153
 1.704,  0.229,1.000,  81.153
 1.706,  0.229,1.000,  81.153
 1.708,  0.229,1.000,  81.153
 1.710,  0.229,1.000,  81.153
 1.712,  0.229,1.000,  81.153
 1.714,  0.229,1.000,  81.153
 1.716,  0.229,1.000,  81.153
 1.718,  0.229,1.000,  81.153
 1.720,  0.229,1.000,  81.153
 1.722,  0.229,1.000,  81.153
 1.724,  0.229,1.000,  81.153
 1.726,  0.229,1.000,  81.153
 1.728,  0.229,1.000,  81.153
 1.730,  0.229,1.000,  81.153
 1.732,  0.229,1.000,  81.153
 1.734,  0.229,1.000,  81.153
 1.736,  0.229,1.000,  81.153
 1.738,  0.229,1.000,  81.153
 1.740,  0.229,1.000,  81.153
 1.742,  0.229,1.000,  81.153
 1.744,  0.229,1.000,  81.153
 1.746,  0.229,1.000,  81.153
 1.748,  0.229,1.000,  81.153
 1.750,  0.229,1.000,  81.153
 1.752,  0.229,1.000,  81.153
 1.754,  0.229,1.000,  81.153
 1.756,  0.229,1.000,  81.153
 1.758,  0.229,1.000,  81.153
 1.760,  0.229,1.000,  81.153
 1.762,  0.229,1.000,  81.153
 1.764,  0.229,1.000,  81.153
 1.766,  0.229,1.000,  81.153
 1.768,  0.229,1.000,  81.153
 1.770,  0.229,1.000,  81.153
 1.772,  0.229,1.000,  81.153
 1.774,  0.229,1.000,  81.153
 1.776,  0.229,1.000,  81.153
 1.778,  0.229,1.000,  81.153
 1.780,  0.229,1.000,  81.153
 1.782,  0.229,1.000,  81.153
 1.784,  0.229,1.000,  81.153
 1.786,  0.229,1.000,  81.153
 1.788,  0.229,1.000,  81.153
 1.790,  0.229,1.000,  81.153
 1.792,  0.229,1.000,  81.153
 1.794,  0.229,1.000,  81.153
 1.796,  0.229,1.000,  81.153
 1.798,  0.229,1.000,  81.153
 1.800,  0.229,1.000,  81.153
 1.802,  0.229,1.000,  81.153
 1.804,  0.229,1.000,  81.153
 1.806,  0.229,1.000,  81.153
 1.808,  0.229,1.000,  81.153
 1.810,  0.229,1.000,  81.153
 1.812,  0.229,1.000,  81.153
 1.814,  0.229,1.000,  81.153
 1.816,  0.229,1.000,  81.153
 1.818,  0.229,1.000,  81.153
 1.820,  0.229,1.000,  81.153
 1.822,  0.229,1.000,  81.153
 1.824,  0.229,1.000,  81.153
 1.826,  0.229,1.000,  81.153
 1.828,  0.229,1.000,  81.153
 1.830,  0.229,1.000,  81.153
 1.832,  0.229,1.000,  81.153
 1.834,  0.229,1.000,  81.153
 1.836,  0.229,1.000,  81.153
 1.838,  0.229,1.000,  81.153
 1.840,  0.229,1.000,  81.153
 1.842,  0.229,1.000,  81.153
 1.844,  0.229,1.000,  81.153
 1.846,  0.229,1.000,  81.153
 1.848,  0.229,1.000,  81.153
 1.850,  0.229,1.000,  81.153
 1.852,  0.229,1.000,  81.153
 1.854,  0.229,1.000,  81.153
 1.856,  0.229,1.000,  81.153
 1.858,  0.229,1.000,  81.153
 1.860,  0.229,1.000,  81.153
 1.862,  0.229,1.000,  81.153
 1.864,  0.229,1.000,  81.153
 1.866,  0.229,1.000,  81.153
 1.868,  0.229,1.000,  81.153
 1.870,  0.229,1.000,  81.153
 1.872,  0.229,1.000,  81.153
 1.874,  0.229,1.000,  81.153
 1.876,  0.229,1.000,  81.153
 1.878,  0.229,1.000,  81.153
 1.880,  0.229,1.000,  81.153
 1.882,  0.229,1.000,  81.153
 1.884,  0.229,1.000,  81.153
 1.886,  0.229,1.000,  81.153
 1.888,  0.229,1.000,  81.153
 1.890,  0.229,1.000,  81.153
 1.892,  0.229,1.000,  81.153
 1.894,  0.229,1.000,  81.153
 1.896,  0.229,1.000,  81.153
 1.898,  0.229,1.000,  81.153
 1.900,  0.229,1.000,  81.153
 1.902,  0.229,1.000,  81.153
 1.904,  0.229,1.000,  81.153
 1.906,  0.229,1.000,  81.153
 1.908,  0.229,1.000,  81.153
 1.910,  0.229,1.000,  81.153
 1.912,  0.229,1.000,  81.153
 1.914,  0.229,1.000,  81.153
 1.916,  0.229,1.000,  81.153
 1.918,  0.229,1.000,  81.153
 1.920,  0.229,1.000,  81.153
 1.922,  0.229,1.000,  81.153
 1.924,  0.229,1.000,  81.153
 1.926,  0.229,1.000,  81.153
 1.928,  0.229,1.000,  81.153
 1.930,  0.229,1.000,  81.153
 1.932,  0.229,1.000,  81.153
 1.934,  0.229,1.000,  81.153
 1.936,  0.229,1.000,  81.153
 1.938,  0.229,1.000,  81.153
 1.940,  0.229,1.000,  81.153
 1.942,  0.229,1.000,  81.153
 1.944,  0.229,1.000,  81.153
 1.946,  0.229,1.000,  81.153
 1.948,  0.229,1.000,  81.153
 1.950,  0.229,1.000,  81.153
 1.952,  0.229,1.000,  81.153
 1.954,  0.229,1.000,  81.153
 1.956,  0.229,1.000,  81.153
 1.958,  0.229,1.000,  81.153
 1.960,  0.229,1.000,  81.153
 1.962,  0.229,1.000,  81.153
 1.964,  0.229,1.000,  81.153
 1.966,  0.229,1.000,  81.153
 1.968,  0.229,1.000,  81.153
 1.970,  0.229,1.000,  81.153
 1.972,  0.229,1.000,  81.153
 1.974,  0.229,1.000,  81.153
 1.976,  0.229,1.000,  81.153
 1.978,  0.229,1.000,  81.153
 1.980,  0.229,1.000,  81.153
 1.982,  0.229,1.000,  81.153
 1.984,  0.229,1.000,  81.153
 1.986,  0.229,1.000,  81.153
 1.988,  0.229,1.000,  81.153
 1.990,  0.229,1.000,  81.153
 1.992,  0.229,1.000,  81.153
 1.994,  0.229,1.000,  81.153
 1.996,  0.229,1.000,  81.153
 1.998,  0.229,1.000,  81.153
 2.000,  0.229,1.000,  81.153
