Time(s),Length(m),Activation,Force(N)
 0.000,  0.260,0.010,   5.428
 0.001,  0.260,0.010,   5.428
 0.003,  0.260,0.010,   5.428
 0.004,  0.260,0.010,   5.428
 0.006,  0.260,0.010,   5.428
 0.007,  0.260,0.010,   5.428
 0.008,  0.260,0.010,   5.428
 0.010,  0.260,0.010,   5.428
 0.011,  0.260,0.010,   5.428
 0.013,  0.260,0.010,   5.428
 0.014,  0.260,0.010,   5.428
 0.015,  0.260,0.010,   5.428
 0.017,  0.260,0.010,   5.428
 0.018,  0.260,0.010,   5.428
 0.020,  0.260,0.010,   5.428
 0.021,  0.260,0.010,   5.428
 0.022,  0.260,0.010,   5.428
 0.024,  0.260,0.010,   5.428
 0.025,  0.260,0.010,   5.428
 0.027,  0.260,0.010,   5.428
 0.028,  0.260,0.010,   5.428
 0.029,  0.260,0.010,   5.428
 0.031,  0.260,0.010,   5.428
 0.032,  0.260,0.010,   5.428
 0.034,  0.260,0.010,   5.428
 0.035,  0.260,0.010,   5.428
 0.036,  0.260,0.010,   5.428
 0.038,  0.260,0.010,   5.428
 0.039,  0.260,0.010,   5.428
 0.041,  0.260,0.010,   5.428
 0.042,  0.260,0.010,   5.428
 0.043,  0.260,0.010,   5.428
 0.045,  0.260,0.010,   5.428
 0.046,  0.260,0.010,   5.428
 0.048,  0.260,0.010,   5.428
 0.049,  0.260,0.010,   5.428
 0.050,  0.260,0.010,   5.432
 0.052,  0.260,0.016,   5.699
 0.053,  0.260,0.027,   6.423
 0.055,  0.260,0.044,   7.467
 0.056,  0.260,0.064,   8.734
 0.057,  0.260,0.088,  10.172
 0.059,  0.260,0.113,  11.752
 0.060,  0.260,0.141,  13.457
 0.062,  0.260,0.169,  15.274
 0.063,  0.260,0.199,  17.192
 0.064,  0.260,0.229,  19.205
 0.066,  0.260,0.259,  21.306
 0.067,  0.260,0.289,  23.489
 0.069,  0.260,0.319,  25.749
 0.070,  0.260,0.348,  28.081
 0.071,  0.260,0.377,  30.479
 0.073,  0.260,0.405,  32.940
 0.074,  0.260,0.432,  35.458
 0.076,  0.260,0.458,  38.028
 0.077,  0.260,0.484,  40.646
 0.078,  0.260,0.509,  43.306
 0.080,  0.260,0.533,  46.005
 0.081,  0.260,0.555,  48.737
 0.083,  0.260,0.577,  51.497
 0.084,  0.260,0.599,  54.281
 0.085,  0.260,0.619,  57.083
 0.087,  0.260,0.638,  59.900
 0.088,  0.260,0.656,  62.726
 0.090,  0.260,0.674,  65.557
 0.091,  0.260,0.691,  68.389
 0.092,  0.260,0.707,  71.216
 0.094,  0.260,0.722,  74.036
 0.095,  0.260,0.737,  76.845
 0.097,  0.260,0.750,  79.637
 0.098,  0.260,0.764,  82.411
 0.099,  0.260,0.776,  85.162
 0.101,  0.260,0.788,  87.887
 0.102,  0.260,0.799,  90.584
 0.104,  0.260,0.810,  93.249
 0.105,  0.260,0.820,  95.880
 0.106,  0.260,0.829,  98.474
 0.108,  0.260,0.839, 101.029
 0.109,  0.260,0.847, 103.544
 0.111,  0.260,0.855, 106.016
 0.112,  0.260,0.863, 108.444
 0.113,  0.260,0.871, 110.826
 0.115,  0.260,0.877, 113.162
 0.116,  0.260,0.884, 115.450
 0.118,  0.260,0.890, 117.689
 0.119,  0.260,0.896, 119.878
 0.120,  0.260,0.902, 122.018
 0.122,  0.260,0.907, 124.107
 0.123,  0.260,0.912, 126.145
 0.125,  0.260,0.917, 128.133
 0.126,  0.260,0.921, 130.069
 0.127,  0.260,0.926, 131.954
 0.129,  0.260,0.930, 133.789
 0.130,  0.260,0.933, 135.573
 0.132,  0.260,0.937, 137.308
 0.133,  0.260,0.941, 138.992
 0.134,  0.260,0.944, 140.628
 0.136,  0.260,0.947, 142.214
 0.137,  0.260,0.950, 143.753
 0.139,  0.260,0.952, 145.245
 0.140,  0.260,0.955, 146.690
 0.141,  0.260,0.957, 148.090
 0.143,  0.260,0.960, 149.445
 0.144,  0.260,0.962, 150.756
 0.146,  0.260,0.964, 152.023
 0.147,  0.260,0.966, 153.249
 0.148,  0.260,0.968, 154.433
 0.150,  0.260,0.970, 155.577
 0.151,  0.260,0.971, 156.682
 0.153,  0.260,0.973, 157.748
 0.154,  0.260,0.974, 158.777
 0.155,  0.260,0.976, 159.770
 0.157,  0.260,0.977, 160.727
 0.158,  0.260,0.978, 161.649
 0.160,  0.260,0.979, 162.539
 0.161,  0.260,0.981, 163.395
 0.162,  0.260,0.982, 164.220
 0.164,  0.260,0.983, 165.015
 0.165,  0.260,0.984, 165.779
 0.167,  0.260,0.984, 166.515
 0.168,  0.260,0.985, 167.223
 0.169,  0.260,0.986, 167.904
 0.171,  0.260,0.987, 168.559
 0.172,  0.260,0.988, 169.189
 0.174,  0.260,0.988, 169.794
 0.175,  0.260,0.989, 170.376
 0.176,  0.260,0.989, 170.934
 0.178,  0.260,0.990, 171.471
 0.179,  0.260,0.991, 171.987
 0.181,  0.260,0.991, 172.482
 0.182,  0.260,0.992, 172.957
 0.183,  0.260,0.992, 173.413
 0.185,  0.260,0.992, 173.851
 0.186,  0.260,0.993, 174.271
 0.188,  0.260,0.993, 174.674
 0.189,  0.260,0.994, 175.060
 0.190,  0.260,0.994, 175.431
 0.192,  0.260,0.994, 175.786
 0.193,  0.260,0.995, 176.127
 0.195,  0.260,0.995, 176.454
 0.196,  0.260,0.995, 176.767
 0.197,  0.260,0.995, 177.067
 0.199,  0.260,0.996, 177.354
 0.200,  0.260,0.996, 177.630
 0.202,  0.260,0.996, 177.893
 0.203,  0.260,0.996, 178.146
 0.204,  0.260,0.997, 178.388
 0.206,  0.260,0.997, 178.620
 0.207,  0.260,0.997, 178.842
 0.209,  0.260,0.997, 179.054
 0.210,  0.260,0.997, 179.257
 0.211,  0.260,0.997, 179.452
 0.213,  0.260,0.998, 179.638
 0.214,  0.260,0.998, 179.817
 0.216,  0.260,0.998, 179.987
 0.217,  0.260,0.998, 180.150
 0.218,  0.260,0.998, 180.306
 0.220,  0.260,0.998, 180.456
 0.221,  0.260,0.998, 180.598
 0.223,  0.260,0.998, 180.735
 0.224,  0.260,0.998, 180.866
 0.225,  0.260,0.999, 180.991
 0.227,  0.260,0.999, 181.110
 0.228,  0.260,0.999, 181.224
 0.230,  0.260,0.999, 181.333
 0.231,  0.260,0.999, 181.438
 0.232,  0.260,0.999, 181.537
 0.234,  0.260,0.999, 181.633
 0.235,  0.260,0.999, 181.724
 0.237,  0.260,0.999, 181.811
 0.238,  0.260,0.999, 181.894
 0.239,  0.260,0.999, 181.973
 0.241,  0.260,0.999, 182.049
 0.242,  0.260,0.999, 182.122
 0.244,  0.260,0.999, 182.191
 0.245,  0.260,0.999, 182.257
 0.246,  0.260,0.999, 182.321
 0.248,  0.260,0.999, 182.381
 0.249,  0.260,0.999, 182.439
 0.251,  0.260,0.999, 182.494
 0.252,  0.260,0.999, 182.546
 0.253,  0.260,1.000, 182.597
 0.255,  0.260,1.000, 182.645
 0.256,  0.260,1.000, 182.690
 0.258,  0.260,1.000, 182.734
 0.259,  0.260,1.000, 182.776
 0.260,  0.260,1.000, 182.816
 0.262,  0.260,1.000, 182.854
 0.263,  0.260,1.000, 182.890
 0.265,  0.260,1.000, 182.925
 0.266,  0.260,1.000, 182.958
 0.267,  0.260,1.000, 182.989
 0.269,  0.260,1.000, 183.019
 0.270,  0.260,1.000, 183.048
 0.272,  0.260,1.000, 183.075
 0.273,  0.260,1.000, 183.102
 0.274,  0.260,1.000, 183.127
 0.276,  0.260,1.000, 183.150
 0.277,  0.260,1.000, 183.173
 0.279,  0.260,1.000, 183.195
 0.280,  0.260,1.000, 183.215
 0.281,  0.260,1.000, 183.235
 0.283,  0.260,1.000, 183.254
 0.284,  0.260,1.000, 183.272
 0.286,  0.260,1.000, 183.289
 0.287,  0.260,1.000, 183.305
 0.288,  0.260,1.000, 183.321
 0.290,  0.260,1.000, 183.336
 0.291,  0.260,1.000, 183.350
 0.293,  0.260,1.000, 183.364
 0.294,  0.260,1.000, 183.376
 0.295,  0.260,1.000, 183.389
 0.297,  0.260,1.000, 183.400
 0.298,  0.260,1.000, 183.412
 0.300,  0.260,1.000, 183.422
 0.301,  0.260,1.000, 183.432
 0.302,  0.260,1.000, 183.442
 0.304,  0.260,1.000, 183.451
 0.305,  0.260,1.000, 183.460
 0.307,  0.260,1.000, 183.468
 0.308,  0.260,1.000, 183.476
 0.309,  0.260,1.000, 183.484
 0.311,  0.260,1.000, 183.491
 0.312,  0.260,1.000, 183.498
 0.314,  0.260,1.000, 183.505
 0.315,  0.260,1.000, 183.511
 0.316,  0.260,1.000, 183.517
 0.318,  0.260,1.000, 183.523
 0.319,  0.260,1.000, 183.528
 0.321,  0.260,1.000, 183.534
 0.322,  0.260,1.000, 183.538
 0.323,  0.260,1.000, 183.543
 0.325,  0.260,1.000, 183.548
 0.326,  0.260,1.000, 183.552
 0.328,  0.260,1.000, 183.556
 0.329,  0.260,1.000, 183.560
 0.330,  0.260,1.000, 183.564
 0.332,  0.260,1.000, 183.567
 0.333,  0.260,1.000, 183.571
 0.335,  0.260,1.000, 183.574
 0.336,  0.260,1.000, 183.577
 0.337,  0.260,1.000, 183.580
 0.339,  0.260,1.000, 183.582
 0.340,  0.260,1.000, 183.585
 0.342,  0.260,1.000, 183.588
 0.343,  0.260,1.000, 183.590
 0.344,  0.260,1.000, 183.592
 0.346,  0.260,1.000, 183.594
 0.347,  0.260,1.000, 183.597
 0.349,  0.260,1.000, 183.599
 0.350,  0.260,1.000, 183.600
 0.351,  0.260,1.000, 183.602
 0.353,  0.260,1.000, 183.604
 0.354,  0.260,1.000, 183.606
 0.356,  0.260,1.000, 183.607
 0.357,  0.260,1.000, 183.609
 0.358,  0.260,1.000, 183.610
 0.360,  0.260,1.000, 183.611
 0.361,  0.260,1.000, 183.613
 0.363,  0.260,1.000, 183.614
 0.364,  0.260,1.000, 183.615
 0.365,  0.260,1.000, 183.616
 0.367,  0.260,1.000, 183.617
 0.368,  0.260,1.000, 183.618
 0.370,  0.260,1.000, 183.619
 0.371,  0.260,1.000, 183.620
 0.372,  0.260,1.000, 183.621
 0.374,  0.260,1.000, 183.622
 0.375,  0.260,1.000, 183.622
 0.377,  0.260,1.000, 183.623
 0.378,  0.260,1.000, 183.624
 0.379,  0.260,1.000, 183.624
 0.381,  0.260,1.000, 183.625
 0.382,  0.260,1.000, 183.626
 0.384,  0.260,1.000, 183.626
 0.385,  0.260,1.000, 183.627
 0.386,  0.260,1.000, 183.627
 0.388,  0.260,1.000, 183.628
 0.389,  0.260,1.000, 183.628
 0.391,  0.260,1.000, 183.629
 0.392,  0.260,1.000, 183.629
 0.393,  0.260,1.000, 183.630
 0.395,  0.260,1.000, 183.630
 0.396,  0.260,1.000, 183.630
 0.398,  0.260,1.000, 183.631
 0.399,  0.260,1.000, 183.631
 0.400,  0.260,1.000, 182.315
 0.402,  0.260,1.000, 177.942
 0.403,  0.260,1.000, 173.880
 0.405,  0.260,1.000, 170.104
 0.406,  0.260,1.000, 166.592
 0.407,  0.260,1.000, 163.325
 0.409,  0.260,1.000, 160.284
 0.410,  0.260,1.000, 157.451
 0.412,  0.259,1.000, 154.812
 0.413,  0.259,1.000, 152.353
 0.414,  0.259,1.000, 150.059
 0.416,  0.259,1.000, 147.920
 0.417,  0.259,1.000, 145.924
 0.419,  0.259,1.000, 144.061
 0.420,  0.259,1.000, 142.322
 0.421,  0.259,1.000, 140.698
 0.423,  0.259,1.000, 139.181
 0.424,  0.259,1.000, 137.763
 0.426,  0.259,1.000, 136.438
 0.427,  0.259,1.000, 135.200
 0.428,  0.258,1.000, 134.043
 0.430,  0.258,1.000, 132.960
 0.431,  0.258,1.000, 131.948
 0.433,  0.258,1.000, 131.001
 0.434,  0.258,1.000, 130.115
 0.435,  0.258,1.000, 129.287
 0.437,  0.258,1.000, 128.512
 0.438,  0.258,1.000, 127.786
 0.440,  0.258,1.000, 127.108
 0.441,  0.258,1.000, 126.473
 0.442,  0.258,1.000, 125.878
 0.444,  0.258,1.000, 125.322
 0.445,  0.257,1.000, 124.801
 0.447,  0.257,1.000, 124.314
 0.448,  0.257,1.000, 123.858
 0.449,  0.257,1.000, 123.430
 0.451,  0.257,1.000, 123.031
 0.452,  0.257,1.000, 122.656
 0.454,  0.257,1.000, 122.306
 0.455,  0.257,1.000, 121.978
 0.456,  0.257,1.000, 121.670
 0.458,  0.257,1.000, 121.383
 0.459,  0.257,1.000, 121.113
 0.461,  0.257,1.000, 120.861
 0.462,  0.256,1.000, 120.624
 0.463,  0.256,1.000, 120.402
 0.465,  0.256,1.000, 120.195
 0.466,  0.256,1.000, 120.000
 0.468,  0.256,1.000, 119.817
 0.469,  0.256,1.000, 119.645
 0.470,  0.256,1.000, 119.484
 0.472,  0.256,1.000, 119.333
 0.473,  0.256,1.000, 119.191
 0.475,  0.256,1.000, 119.058
 0.476,  0.256,1.000, 118.932
 0.477,  0.256,1.000, 118.814
 0.479,  0.255,1.000, 118.702
 0.480,  0.255,1.000, 118.597
 0.482,  0.255,1.000, 118.497
 0.483,  0.255,1.000, 118.403
 0.484,  0.255,1.000, 118.314
 0.486,  0.255,1.000, 118.229
 0.487,  0.255,1.000, 118.149
 0.489,  0.255,1.000, 118.072
 0.490,  0.255,1.000, 117.999
 0.491,  0.255,1.000, 117.929
 0.493,  0.255,1.000, 117.862
 0.494,  0.255,1.000, 117.797
 0.496,  0.254,1.000, 117.735
 0.497,  0.254,1.000, 117.676
 0.498,  0.254,1.000, 117.618
 0.500,  0.254,1.000, 117.561
 0.501,  0.254,1.000, 117.507
 0.503,  0.254,1.000, 117.453
 0.504,  0.254,1.000, 117.401
 0.505,  0.254,1.000, 117.350
 0.507,  0.254,1.000, 117.299
 0.508,  0.254,1.000, 117.249
 0.510,  0.254,1.000, 117.199
 0.511,  0.253,1.000, 117.150
 0.512,  0.253,1.000, 117.101
 0.514,  0.253,1.000, 117.053
 0.515,  0.253,1.000, 117.004
 0.517,  0.253,1.000, 116.955
 0.518,  0.253,1.000, 116.906
 0.519,  0.253,1.000, 116.857
 0.521,  0.253,1.000, 116.807
 0.522,  0.253,1.000, 116.756
 0.524,  0.253,1.000, 116.706
 0.525,  0.253,1.000, 116.654
 0.526,  0.253,1.000, 116.602
 0.528,  0.252,1.000, 116.549
 0.529,  0.252,1.000, 116.495
 0.531,  0.252,1.000, 116.440
 0.532,  0.252,1.000, 116.385
 0.533,  0.252,1.000, 116.328
 0.535,  0.252,1.000, 116.271
 0.536,  0.252,1.000, 116.212
 0.538,  0.252,1.000, 116.152
 0.539,  0.252,1.000, 116.091
 0.540,  0.252,1.000, 116.028
 0.542,  0.252,1.000, 115.965
 0.543,  0.252,1.000, 115.900
 0.545,  0.251,1.000, 115.834
 0.546,  0.251,1.000, 115.766
 0.547,  0.251,1.000, 115.697
 0.549,  0.251,1.000, 115.627
 0.550,  0.251,1.000, 115.555
 0.552,  0.251,1.000, 115.482
 0.553,  0.251,1.000, 115.407
 0.554,  0.251,1.000, 115.331
 0.556,  0.251,1.000, 115.253
 0.557,  0.251,1.000, 115.174
 0.559,  0.251,1.000, 115.093
 0.560,  0.251,1.000, 115.010
 0.561,  0.250,1.000, 114.926
 0.563,  0.250,1.000, 114.841
 0.564,  0.250,1.000, 114.753
 0.566,  0.250,1.000, 114.664
 0.567,  0.250,1.000, 114.574
 0.568,  0.250,1.000, 114.482
 0.570,  0.250,1.000, 114.388
 0.571,  0.250,1.000, 114.292
 0.573,  0.250,1.000, 114.195
 0.574,  0.250,1.000, 114.096
 0.575,  0.250,1.000, 113.995
 0.577,  0.250,1.000, 113.893
 0.578,  0.249,1.000, 113.789
 0.580,  0.249,1.000, 113.683
 0.581,  0.249,1.000, 113.576
 0.582,  0.249,1.000, 113.466
 0.584,  0.249,1.000, 113.355
 0.585,  0.249,1.000, 113.243
 0.587,  0.249,1.000, 113.128
 0.588,  0.249,1.000, 113.012
 0.589,  0.249,1.000, 112.894
 0.591,  0.249,1.000, 112.775
 0.592,  0.249,1.000, 112.653
 0.594,  0.249,1.000, 112.530
 0.595,  0.248,1.000, 112.405
 0.596,  0.248,1.000, 112.278
 0.598,  0.248,1.000, 112.150
 0.599,  0.248,1.000, 112.020
 0.601,  0.248,1.000, 111.888
 0.602,  0.248,1.000, 111.754
 0.603,  0.248,1.000, 111.619
 0.605,  0.248,1.000, 111.482
 0.606,  0.248,1.000, 111.343
 0.608,  0.248,1.000, 111.202
 0.609,  0.248,1.000, 111.060
 0.610,  0.248,1.000, 110.916
 0.612,  0.247,1.000, 110.770
 0.613,  0.247,1.000, 110.622
 0.615,  0.247,1.000, 110.473
 0.616,  0.247,1.000, 110.322
 0.617,  0.247,1.000, 110.169
 0.619,  0.247,1.000, 110.015
 0.620,  0.247,1.000, 109.858
 0.622,  0.247,1.000, 109.701
 0.623,  0.247,1.000, 109.541
 0.624,  0.247,1.000, 109.380
 0.626,  0.247,1.000, 109.217
 0.627,  0.247,1.000, 109.052
 0.629,  0.246,1.000, 108.885
 0.630,  0.246,1.000, 108.717
 0.631,  0.246,1.000, 108.547
 0.633,  0.246,1.000, 108.376
 0.634,  0.246,1.000, 108.203
 0.636,  0.246,1.000, 108.028
 0.637,  0.246,1.000, 107.851
 0.638,  0.246,1.000, 107.673
 0.640,  0.246,1.000, 107.493
 0.641,  0.246,1.000, 107.312
 0.643,  0.246,1.000, 107.129
 0.644,  0.246,1.000, 106.944
 0.645,  0.245,1.000, 106.758
 0.647,  0.245,1.000, 106.570
 0.648,  0.245,1.000, 106.380
 0.650,  0.245,1.000, 106.189
 0.651,  0.245,1.000, 105.996
 0.652,  0.245,1.000, 105.801
 0.654,  0.245,1.000, 105.605
 0.655,  0.245,1.000, 105.408
 0.657,  0.245,1.000, 105.208
 0.658,  0.245,1.000, 105.008
 0.659,  0.245,1.000, 104.805
 0.661,  0.245,1.000, 104.601
 0.662,  0.244,1.000, 104.396
 0.664,  0.244,1.000, 104.189
 0.665,  0.244,1.000, 103.981
 0.666,  0.244,1.000, 103.770
 0.668,  0.244,1.000, 103.559
 0.669,  0.244,1.000, 103.346
 0.671,  0.244,1.000, 103.131
 0.672,  0.244,1.000, 102.915
 0.673,  0.244,1.000, 102.698
 0.675,  0.244,1.000, 102.479
 0.676,  0.244,1.000, 102.258
 0.678,  0.244,1.000, 102.036
 0.679,  0.243,1.000, 101.813
 0.680,  0.243,1.000, 101.588
 0.682,  0.243,1.000, 101.362
 0.683,  0.243,1.000, 101.134
 0.685,  0.243,1.000, 100.905
 0.686,  0.243,1.000, 100.674
 0.687,  0.243,1.000, 100.442
 0.689,  0.243,1.000, 100.209
 0.690,  0.243,1.000,  99.974
 0.692,  0.243,1.000,  99.738
 0.693,  0.243,1.000,  99.501
 0.694,  0.242,1.000,  99.262
 0.696,  0.242,1.000,  99.022
 0.697,  0.242,1.000,  98.780
 0.699,  0.242,1.000,  98.538
 0.700,  0.242,1.000,  98.293
 0.701,  0.242,1.000,  98.048
 0.703,  0.242,1.000,  97.801
 0.704,  0.242,1.000,  97.553
 0.706,  0.242,1.000,  97.304
 0.707,  0.242,1.000,  97.054
 0.708,  0.242,1.000,  96.802
 0.710,  0.242,1.000,  96.549
 0.711,  0.241,1.000,  96.294
 0.713,  0.241,1.000,  96.039
 0.714,  0.241,1.000,  95.782
 0.715,  0.241,1.000,  95.524
 0.717,  0.241,1.000,  95.265
 0.718,  0.241,1.000,  95.005
 0.720,  0.241,1.000,  94.744
 0.721,  0.241,1.000,  94.481
 0.722,  0.241,1.000,  94.217
 0.724,  0.241,1.000,  93.952
 0.725,  0.241,1.000,  93.686
 0.727,  0.241,1.000,  93.419
 0.728,  0.240,1.000,  93.151
 0.729,  0.240,1.000,  92.882
 0.731,  0.240,1.000,  92.611
 0.732,  0.240,1.000,  92.340
 0.734,  0.240,1.000,  92.067
 0.735,  0.240,1.000,  91.794
 0.736,  0.240,1.000,  91.519
 0.738,  0.240,1.000,  91.243
 0.739,  0.240,1.000,  90.967
 0.741,  0.240,1.000,  90.689
 0.742,  0.240,1.000,  90.410
 0.743,  0.240,1.000,  90.131
 0.745,  0.239,1.000,  89.850
 0.746,  0.239,1.000,  89.568
 0.748,  0.239,1.000,  89.286
 0.749,  0.239,1.000,  89.002
 0.750,  0.239,1.000,  88.718
 0.752,  0.239,1.000,  88.433
 0.753,  0.239,1.000,  88.146
 0.755,  0.239,1.000,  87.859
 0.756,  0.239,1.000,  87.571
 0.757,  0.239,1.000,  87.282
 0.759,  0.239,1.000,  86.993
 0.760,  0.239,1.000,  86.702
 0.762,  0.238,1.000,  86.411
 0.763,  0.238,1.000,  86.119
 0.764,  0.238,1.000,  85.826
 0.766,  0.238,1.000,  85.532
 0.767,  0.238,1.000,  85.237
 0.769,  0.238,1.000,  84.942
 0.770,  0.238,1.000,  84.646
 0.771,  0.238,1.000,  84.349
 0.773,  0.238,1.000,  84.051
 0.774,  0.238,1.000,  83.753
 0.776,  0.238,1.000,  83.454
 0.777,  0.238,1.000,  83.154
 0.778,  0.237,1.000,  82.854
 0.780,  0.237,1.000,  82.553
 0.781,  0.237,1.000,  82.251
 0.783,  0.237,1.000,  81.949
 0.784,  0.237,1.000,  81.646
 0.785,  0.237,1.000,  81.342
 0.787,  0.237,1.000,  81.038
 0.788,  0.237,1.000,  80.733
 0.790,  0.237,1.000,  80.428
 0.791,  0.237,1.000,  80.122
 0.792,  0.237,1.000,  79.815
 0.794,  0.237,1.000,  79.508
 0.795,  0.236,1.000,  79.200
 0.797,  0.236,1.000,  78.892
 0.798,  0.236,1.000,  78.583
 0.799,  0.236,1.000,  78.274
 0.801,  0.236,1.000,  77.965
 0.802,  0.236,1.000,  77.654
 0.804,  0.236,1.000,  77.344
 0.805,  0.236,1.000,  77.033
 0.806,  0.236,1.000,  76.721
 0.808,  0.236,1.000,  76.409
 0.809,  0.236,1.000,  76.097
 0.811,  0.236,1.000,  75.784
 0.812,  0.235,1.000,  75.471
 0.813,  0.235,1.000,  75.157
 0.815,  0.235,1.000,  74.843
 0.816,  0.235,1.000,  74.529
 0.818,  0.235,1.000,  74.215
 0.819,  0.235,1.000,  73.900
 0.820,  0.235,1.000,  73.584
 0.822,  0.235,1.000,  73.269
 0.823,  0.235,1.000,  72.953
 0.825,  0.235,1.000,  72.637
 0.826,  0.235,1.000,  72.320
 0.827,  0.235,1.000,  72.004
 0.829,  0.234,1.000,  71.687
 0.830,  0.234,1.000,  71.370
 0.832,  0.234,1.000,  71.052
 0.833,  0.234,1.000,  70.735
 0.834,  0.234,1.000,  70.417
 0.836,  0.234,1.000,  70.099
 0.837,  0.234,1.000,  69.781
 0.839,  0.234,1.000,  69.463
 0.840,  0.234,1.000,  69.144
 0.841,  0.234,1.000,  68.826
 0.843,  0.234,1.000,  68.507
 0.844,  0.234,1.000,  68.188
 0.846,  0.233,1.000,  67.869
 0.847,  0.233,1.000,  67.550
 0.848,  0.233,1.000,  67.231
 0.850,  0.233,1.000,  66.912
 0.851,  0.233,1.000,  66.593
 0.853,  0.233,1.000,  66.273
 0.854,  0.233,1.000,  65.954
 0.855,  0.233,1.000,  65.635
 0.857,  0.233,1.000,  65.315
 0.858,  0.233,1.000,  64.996
 0.860,  0.233,1.000,  64.677
 0.861,  0.232,1.000,  64.358
 0.862,  0.232,1.000,  64.038
 0.864,  0.232,1.000,  63.719
 0.865,  0.232,1.000,  63.400
 0.867,  0.232,1.000,  63.081
 0.868,  0.232,1.000,  62.762
 0.869,  0.232,1.000,  62.443
 0.871,  0.232,1.000,  62.124
 0.872,  0.232,1.000,  61.806
 0.874,  0.232,1.000,  61.487
 0.875,  0.232,1.000,  61.169
 0.876,  0.232,1.000,  60.851
 0.878,  0.231,1.000,  60.532
 0.879,  0.231,1.000,  60.215
 0.881,  0.231,1.000,  59.897
 0.882,  0.231,1.000,  59.579
 0.883,  0.231,1.000,  59.262
 0.885,  0.231,1.000,  58.945
 0.886,  0.231,1.000,  58.628
 0.888,  0.231,1.000,  58.311
 0.889,  0.231,1.000,  57.995
 0.890,  0.231,1.000,  57.679
 0.892,  0.231,1.000,  57.363
 0.893,  0.231,1.000,  57.047
 0.895,  0.230,1.000,  56.732
 0.896,  0.230,1.000,  56.417
 0.897,  0.230,1.000,  56.102
 0.899,  0.230,1.000,  55.788
 0.900,  0.230,1.000,  55.474
 0.902,  0.230,1.000,  55.160
 0.903,  0.230,1.000,  54.846
 0.904,  0.230,1.000,  54.533
 0.906,  0.230,1.000,  54.221
 0.907,  0.230,1.000,  53.908
 0.909,  0.230,1.000,  53.597
 0.910,  0.230,1.000,  53.285
 0.911,  0.229,1.000,  52.974
 0.913,  0.229,1.000,  52.663
 0.914,  0.229,1.000,  52.353
 0.916,  0.229,1.000,  52.043
 0.917,  0.229,1.000,  51.734
 0.918,  0.229,1.000,  51.425
 0.920,  0.229,1.000,  51.117
 0.921,  0.229,1.000,  50.809
 0.923,  0.229,1.000,  50.501
 0.924,  0.229,1.000,  50.194
 0.925,  0.229,1.000,  49.888
 0.927,  0.229,1.000,  49.582
 0.928,  0.228,1.000,  49.276
 0.930,  0.228,1.000,  48.972
 0.931,  0.228,1.000,  48.667
 0.932,  0.228,1.000,  48.363
 0.934,  0.228,1.000,  48.060
 0.935,  0.228,1.000,  47.757
 0.937,  0.228,1.000,  47.455
 0.938,  0.228,1.000,  47.154
 0.939,  0.228,1.000,  46.853
 0.941,  0.228,1.000,  46.552
 0.942,  0.228,1.000,  46.253
 0.944,  0.228,1.000,  45.954
 0.945,  0.227,1.000,  45.655
 0.946,  0.227,1.000,  45.357
 0.948,  0.227,1.000,  45.060
 0.949,  0.227,1.000,  44.763
 0.951,  0.227,1.000,  44.467
 0.952,  0.227,1.000,  44.172
 0.953,  0.227,1.000,  43.878
 0.955,  0.227,1.000,  43.584
 0.956,  0.227,1.000,  43.291
 0.958,  0.227,1.000,  42.998
 0.959,  0.227,1.000,  42.706
 0.960,  0.227,1.000,  42.415
 0.962,  0.226,1.000,  42.125
 0.963,  0.226,1.000,  41.835
 0.965,  0.226,1.000,  41.546
 0.966,  0.226,1.000,  41.258
 0.967,  0.226,1.000,  40.971
 0.969,  0.226,1.000,  40.684
 0.970,  0.226,1.000,  40.398
 0.972,  0.226,1.000,  40.113
 0.973,  0.226,1.000,  39.829
 0.974,  0.226,1.000,  39.545
 0.976,  0.226,1.000,  39.262
 0.977,  0.226,1.000,  38.980
 0.979,  0.225,1.000,  38.699
 0.980,  0.225,1.000,  38.419
 0.981,  0.225,1.000,  38.139
 0.983,  0.225,1.000,  37.860
 0.984,  0.225,1.000,  37.583
 0.986,  0.225,1.000,  37.305
 0.987,  0.225,1.000,  37.029
 0.988,  0.225,1.000,  36.754
 0.990,  0.225,1.000,  36.479
 0.991,  0.225,1.000,  36.206
 0.993,  0.225,1.000,  35.933
 0.994,  0.225,1.000,  35.661
 0.995,  0.224,1.000,  35.390
 0.997,  0.224,1.000,  35.120
 0.998,  0.224,1.000,  34.851
 1.000,  0.224,1.000,  34.582
 1.001,  0.224,1.000,  34.315
 1.002,  0.224,1.000,  34.048
 1.004,  0.224,1.000,  33.783
 1.005,  0.224,1.000,  33.518
 1.007,  0.224,1.000,  33.254
 1.008,  0.224,1.000,  32.991
 1.009,  0.224,1.000,  32.730
 1.011,  0.224,1.000,  32.469
 1.012,  0.223,1.000,  32.209
 1.014,  0.223,1.000,  31.950
 1.015,  0.223,1.000,  31.691
 1.016,  0.223,1.000,  31.434
 1.018,  0.223,1.000,  31.178
 1.019,  0.223,1.000,  30.923
 1.021,  0.223,1.000,  30.669
 1.022,  0.223,1.000,  30.415
 1.023,  0.223,1.000,  30.163
 1.025,  0.223,1.000,  29.912
 1.026,  0.223,1.000,  29.662
 1.028,  0.223,1.000,  29.412
 1.029,  0.222,1.000,  29.164
 1.030,  0.222,1.000,  28.917
 1.032,  0.222,1.000,  28.671
 1.033,  0.222,1.000,  28.425
 1.035,  0.222,1.000,  28.181
 1.036,  0.222,1.000,  27.938
 1.037,  0.222,1.000,  27.696
 1.039,  0.222,1.000,  27.455
 1.040,  0.222,1.000,  27.215
 1.042,  0.222,1.000,  26.975
 1.043,  0.222,1.000,  26.737
 1.044,  0.221,1.000,  26.500
 1.046,  0.221,1.000,  26.265
 1.047,  0.221,1.000,  26.030
 1.049,  0.221,1.000,  25.796
 1.050,  0.221,1.000,  25.563
 1.051,  0.221,1.000,  25.332
 1.053,  0.221,1.000,  25.101
 1.054,  0.221,1.000,  24.871
 1.056,  0.221,1.000,  24.643
 1.057,  0.221,1.000,  24.416
 1.058,  0.221,1.000,  24.189
 1.060,  0.221,1.000,  23.964
 1.061,  0.220,1.000,  23.740
 1.063,  0.220,1.000,  23.517
 1.064,  0.220,1.000,  23.295
 1.065,  0.220,1.000,  23.074
 1.067,  0.220,1.000,  22.976
 1.068,  0.220,1.000,  23.853
 1.070,  0.220,1.000,  24.630
 1.071,  0.220,1.000,  25.317
 1.072,  0.220,1.000,  25.927
 1.074,  0.220,1.000,  26.467
 1.075,  0.220,1.000,  26.946
 1.077,  0.220,1.000,  27.371
 1.078,  0.220,1.000,  27.747
 1.079,  0.220,1.000,  28.082
 1.081,  0.220,1.000,  28.378
 1.082,  0.220,1.000,  28.642
 1.084,  0.220,1.000,  28.876
 1.085,  0.220,1.000,  29.083
 1.086,  0.220,1.000,  29.267
 1.088,  0.220,1.000,  29.431
 1.089,  0.220,1.000,  29.577
 1.091,  0.220,1.000,  29.706
 1.092,  0.220,1.000,  29.821
 1.093,  0.220,1.000,  29.922
 1.095,  0.220,1.000,  30.013
 1.096,  0.220,1.000,  30.094
 1.098,  0.220,1.000,  30.165
 1.099,  0.220,1.000,  30.229
 1.100,  0.220,1.000,  30.285
 1.102,  0.220,1.000,  30.335
 1.103,  0.220,1.000,  30.380
 1.105,  0.220,1.000,  30.419
 1.106,  0.220,1.000,  30.455
 1.107,  0.220,1.000,  30.486
 1.109,  0.220,1.000,  30.514
 1.110,  0.220,1.000,  30.538
 1.112,  0.220,1.000,  30.560
 1.113,  0.220,1.000,  30.580
 1.114,  0.220,1.000,  30.597
 1.116,  0.220,1.000,  30.613
 1.117,  0.220,1.000,  30.627
 1.119,  0.220,1.000,  30.639
 1.120,  0.220,1.000,  30.650
 1.121,  0.220,1.000,  30.659
 1.123,  0.220,1.000,  30.668
 1.124,  0.220,1.000,  30.675
 1.126,  0.220,1.000,  30.682
 1.127,  0.220,1.000,  30.688
 1.128,  0.220,1.000,  30.693
 1.130,  0.220,1.000,  30.698
 1.131,  0.220,1.000,  30.702
 1.133,  0.220,1.000,  30.706
 1.134,  0.220,1.000,  30.710
 1.135,  0.220,1.000,  30.713
 1.137,  0.220,1.000,  30.715
 1.138,  0.220,1.000,  30.717
 1.140,  0.220,1.000,  30.720
 1.141,  0.220,1.000,  30.721
 1.142,  0.220,1.000,  30.723
 1.144,  0.220,1.000,  30.725
 1.145,  0.220,1.000,  30.726
 1.147,  0.220,1.000,  30.727
 1.148,  0.220,1.000,  30.728
 1.149,  0.220,1.000,  30.729
 1.151,  0.220,1.000,  30.730
 1.152,  0.220,1.000,  30.730
 1.154,  0.220,1.000,  30.731
 1.155,  0.220,1.000,  30.732
 1.156,  0.220,1.000,  30.732
 1.158,  0.220,1.000,  30.733
 1.159,  0.220,1.000,  30.733
 1.161,  0.220,1.000,  30.733
 1.162,  0.220,1.000,  30.734
 1.163,  0.220,1.000,  30.734
 1.165,  0.220,1.000,  30.734
 1.166,  0.220,1.000,  30.734
 1.168,  0.220,1.000,  30.735
 1.169,  0.220,1.000,  30.735
 1.170,  0.220,1.000,  30.735
 1.172,  0.220,1.000,  30.735
 1.173,  0.220,1.000,  30.735
 1.175,  0.220,1.000,  30.735
 1.176,  0.220,1.000,  30.735
 1.177,  0.220,1.000,  30.736
 1.179,  0.220,1.000,  30.736
 1.180,  0.220,1.000,  30.736
 1.182,  0.220,1.000,  30.736
 1.183,  0.220,1.000,  30.736
 1.184,  0.220,1.000,  30.736
 1.186,  0.220,1.000,  30.736
 1.187,  0.220,1.000,  30.736
 1.189,  0.220,1.000,  30.736
 1.190,  0.220,1.000,  30.736
 1.191,  0.220,1.000,  30.736
 1.193,  0.220,1.000,  30.736
 1.194,  0.220,1.000,  30.736
 1.196,  0.220,1.000,  30.736
 1.197,  0.220,1.000,  30.736
 1.198,  0.220,1.000,  30.736
 1.200,  0.220,1.000,  30.736
 1.201,  0.220,1.000,  30.736
 1.203,  0.220,1.000,  30.736
 1.204,  0.220,1.000,  30.736
 1.205,  0.220,1.000,  30.736
 1.207,  0.220,1.000,  30.736
 1.208,  0.220,1.000,  30.736
 1.210,  0.220,1.000,  30.736
 1.211,  0.220,1.000,  30.736
 1.212,  0.220,1.000,  30.736
 1.214,  0.220,1.000,  30.736
 1.215,  0.220,1.000,  30.736
 1.217,  0.220,1.000,  30.736
 1.218,  0.220,1.000,  30.736
 1.219,  0.220,1.000,  30.736
 1.221,  0.220,1.000,  30.736
 1.222,  0.220,1.000,  30.736
 1.224,  0.220,1.000,  30.736
 1.225,  0.220,1.000,  30.736
 1.226,  0.220,1.000,  30.736
 1.228,  0.220,1.000,  30.736
 1.229,  0.220,1.000,  30.736
 1.231,  0.220,1.000,  30.736
 1.232,  0.220,1.000,  30.736
 1.233,  0.220,1.000,  30.736
 1.235,  0.220,1.000,  30.736
 1.236,  0.220,1.000,  30.736
 1.238,  0.220,1.000,  30.736
 1.239,  0.220,1.000,  30.736
 1.240,  0.220,1.000,  30.736
 1.242,  0.220,1.000,  30.736
 1.243,  0.220,1.000,  30.736
 1.245,  0.220,1.000,  30.736
 1.246,  0.220,1.000,  30.736
 1.247,  0.220,1.000,  30.736
 1.249,  0.220,1.000,  30.736
 1.250,  0.220,1.000,  30.736
 1.252,  0.220,1.000,  30.736
 1.253,  0.220,1.000,  30.736
 1.254,  0.220,1.000,  30.736
 1.256,  0.220,1.000,  30.736
 1.257,  0.220,1.000,  30.736
 1.259,  0.220,1.000,  30.736
 1.260,  0.220,1.000,  30.736
 1.261,  0.220,1.000,  30.736
 1.263,  0.220,1.000,  30.736
 1.264,  0.220,1.000,  30.736
 1.266,  0.220,1.000,  30.736
 1.267,  0.220,1.000,  30.736
 1.268,  0.220,1.000,  30.736
 1.270,  0.220,1.000,  30.736
 1.271,  0.220,1.000,  30.736
 1.273,  0.220,1.000,  30.736
 1.274,  0.220,1.000,  30.736
 1.275,  0.220,1.000,  30.736
 1.277,  0.220,1.000,  30.736
 1.278,  0.220,1.000,  30.736
 1.280,  0.220,1.000,  30.736
 1.281,  0.220,1.000,  30.736
 1.282,  0.220,1.000,  30.736
 1.284,  0.220,1.000,  30.736
 1.285,  0.220,1.000,  30.736
 1.287,  0.220,1.000,  30.736
 1.288,  0.220,1.000,  30.736
 1.289,  0.220,1.000,  30.736
 1.291,  0.220,1.000,  30.736
 1.292,  0.220,1.000,  30.736
 1.294,  0.220,1.000,  30.736
 1.295,  0.220,1.000,  30.736
 1.296,  0.220,1.000,  30.736
 1.298,  0.220,1.000,  30.736
 1.299,  0.220,1.000,  30.736
 1.301,  0.220,1.000,  30.736
 1.302,  0.220,1.000,  30.736
 1.303,  0.220,1.000,  30.736
 1.305,  0.220,1.000,  30.736
 1.306,  0.220,1.000,  30.736
 1.308,  0.220,1.000,  30.736
 1.309,  0.220,1.000,  30.736
 1.310,  0.220,1.000,  30.736
 1.312,  0.220,1.000,  30.736
 1.313,  0.220,1.000,  30.736
 1.315,  0.220,1.000,  30.736
 1.316,  0.220,1.000,  30.736
 1.317,  0.220,1.000,  30.736
 1.319,  0.220,1.000,  30.736
 1.320,  0.220,1.000,  30.736
 1.322,  0.220,1.000,  30.736
 1.323,  0.220,1.000,  30.736
 1.324,  0.220,1.000,  30.736
 1.326,  0.220,1.000,  30.736
 1.327,  0.220,1.000,  30.736
 1.329,  0.220,1.000,  30.736
 1.330,  0.220,1.000,  30.736
 1.331,  0.220,1.000,  30.736
 1.333,  0.220,1.000,  30.736
 1.334,  0.220,1.000,  30.736
 1.336,  0.220,1.000,  30.736
 1.337,  0.220,1.000,  30.736
 1.338,  0.220,1.000,  30.736
 1.340,  0.220,1.000,  30.736
 1.341,  0.220,1.000,  30.736
 1.343,  0.220,1.000,  30.736
 1.344,  0.220,1.000,  30.736
 1.345,  0.220,1.000,  30.736
 1.347,  0.220,1.000,  30.736
 1.348,  0.220,1.000,  30.736
 1.350,  0.220,1.000,  30.736
 1.351,  0.220,1.000,  30.736
 1.352,  0.220,1.000,  30.736
 1.354,  0.220,1.000,  30.736
 1.355,  0.220,1.000,  30.736
 1.357,  0.220,1.000,  30.736
 1.358,  0.220,1.000,  30.736
 1.359,  0.220,1.000,  30.736
 1.361,  0.220,1.000,  30.736
 1.362,  0.220,1.000,  30.736
 1.364,  0.220,1.000,  30.736
 1.365,  0.220,1.000,  30.736
 1.366,  0.220,1.000,  30.736
 1.368,  0.220,1.000,  30.736
 1.369,  0.220,1.000,  30.736
 1.371,  0.220,1.000,  30.736
 1.372,  0.220,1.000,  30.736
 1.373,  0.220,1.000,  30.736
 1.375,  0.220,1.000,  30.736
 1.376,  0.220,1.000,  30.736
 1.378,  0.220,1.000,  30.736
 1.379,  0.220,1.000,  30.736
 1.380,  0.220,1.000,  30.736
 1.382,  0.220,1.000,  30.736
 1.383,  0.220,1.000,  30.736
 1.385,  0.220,1.000,  30.736
 1.386,  0.220,1.000,  30.736
 1.387,  0.220,1.000,  30.736
 1.389,  0.220,1.000,  30.736
 1.390,  0.220,1.000,  30.736
 1.392,  0.220,1.000,  30.736
 1.393,  0.220,1.000,  30.736
 1.394,  0.220,1.000,  30.736
 1.396,  0.220,1.000,  30.736
 1.397,  0.220,1.000,  30.736
 1.399,  0.220,1.000,  30.736
 1.400,  0.220,1.000,  30.736
